# Homogenous matter with ESkyrme BSk31
# den [fm-3], E/A [MeV], Press [MeV.fm-3] 
0.0010000000 0.103616 -0.000103
0.0020000000 -0.037623 -0.000670
0.0030000000 -0.218828 -0.001730
0.0040000000 -0.417594 -0.003272
0.0050000000 -0.625508 -0.005278
0.0060000000 -0.838439 -0.007731
0.0070000000 -1.054054 -0.010614
0.0080000000 -1.270915 -0.013908
0.0090000000 -1.488082 -0.017597
0.0100000000 -1.704913 -0.021666
0.0110000000 -1.920957 -0.026098
0.0120000000 -2.135890 -0.030880
0.0130000000 -2.349473 -0.035996
0.0140000000 -2.561529 -0.041432
0.0150000000 -2.771927 -0.047176
0.0160000000 -2.980568 -0.053215
0.0170000000 -3.187376 -0.059536
0.0180000000 -3.392297 -0.066126
0.0190000000 -3.595290 -0.072975
0.0200000000 -3.796324 -0.080070
0.0210000000 -3.995378 -0.087399
0.0220000000 -4.192440 -0.094953
0.0230000000 -4.387499 -0.102720
0.0240000000 -4.580554 -0.110690
0.0250000000 -4.771602 -0.118853
0.0260000000 -4.960648 -0.127197
0.0270000000 -5.147695 -0.135714
0.0280000000 -5.332750 -0.144394
0.0290000000 -5.515822 -0.153226
0.0300000000 -5.696920 -0.162203
0.0310000000 -5.876055 -0.171314
0.0320000000 -6.053237 -0.180550
0.0330000000 -6.228478 -0.189902
0.0340000000 -6.401790 -0.199362
0.0350000000 -6.573186 -0.208921
0.0360000000 -6.742679 -0.218570
0.0370000000 -6.910282 -0.228301
0.0380000000 -7.076006 -0.238105
0.0390000000 -7.239867 -0.247975
0.0400000000 -7.401876 -0.257902
0.0410000000 -7.562047 -0.267877
0.0420000000 -7.720392 -0.277894
0.0430000000 -7.876926 -0.287945
0.0440000000 -8.031660 -0.298020
0.0450000000 -8.184607 -0.308114
0.0460000000 -8.335780 -0.318218
0.0470000000 -8.485192 -0.328324
0.0480000000 -8.632854 -0.338426
0.0490000000 -8.778779 -0.348516
0.0500000000 -8.922979 -0.358587
0.0510000000 -9.065465 -0.368631
0.0520000000 -9.206250 -0.378641
0.0530000000 -9.345344 -0.388610
0.0540000000 -9.482760 -0.398532
0.0550000000 -9.618507 -0.408399
0.0560000000 -9.752598 -0.418204
0.0570000000 -9.885042 -0.427940
0.0580000000 -10.015851 -0.437601
0.0590000000 -10.145035 -0.447180
0.0600000000 -10.272604 -0.456670
0.0610000000 -10.398568 -0.466065
0.0620000000 -10.522938 -0.475358
0.0630000000 -10.645722 -0.484542
0.0640000000 -10.766931 -0.493612
0.0650000000 -10.886574 -0.502559
0.0660000000 -11.004661 -0.511379
0.0670000000 -11.121200 -0.520065
0.0680000000 -11.236201 -0.528610
0.0690000000 -11.349672 -0.537008
0.0700000000 -11.461622 -0.545254
0.0710000000 -11.572060 -0.553340
0.0720000000 -11.680994 -0.561260
0.0730000000 -11.788433 -0.569009
0.0740000000 -11.894384 -0.576581
0.0750000000 -11.998856 -0.583969
0.0760000000 -12.101856 -0.591167
0.0770000000 -12.203393 -0.598169
0.0780000000 -12.303475 -0.604971
0.0790000000 -12.402107 -0.611564
0.0800000000 -12.499299 -0.617944
0.0810000000 -12.595058 -0.624106
0.0820000000 -12.689390 -0.630042
0.0830000000 -12.782302 -0.635747
0.0840000000 -12.873803 -0.641216
0.0850000000 -12.963898 -0.646443
0.0860000000 -13.052594 -0.651422
0.0870000000 -13.139899 -0.656147
0.0880000000 -13.225819 -0.660613
0.0890000000 -13.310359 -0.664814
0.0900000000 -13.393528 -0.668745
0.0910000000 -13.475330 -0.672400
0.0920000000 -13.555772 -0.675773
0.0930000000 -13.634861 -0.678859
0.0940000000 -13.712602 -0.681653
0.0950000000 -13.789001 -0.684149
0.0960000000 -13.864065 -0.686341
0.0970000000 -13.937799 -0.688225
0.0980000000 -14.010208 -0.689795
0.0990000000 -14.081298 -0.691045
0.1000000000 -14.151076 -0.691970
0.1010000000 -14.219546 -0.692565
0.1020000000 -14.286714 -0.692825
0.1030000000 -14.352584 -0.692743
0.1040000000 -14.417164 -0.692316
0.1050000000 -14.480457 -0.691538
0.1060000000 -14.542468 -0.690403
0.1070000000 -14.603204 -0.688906
0.1080000000 -14.662668 -0.687042
0.1090000000 -14.720867 -0.684807
0.1100000000 -14.777803 -0.682194
0.1110000000 -14.833484 -0.679199
0.1120000000 -14.887912 -0.675817
0.1130000000 -14.941094 -0.672042
0.1140000000 -14.993033 -0.667870
0.1150000000 -15.043734 -0.663295
0.1160000000 -15.093202 -0.658312
0.1170000000 -15.141441 -0.652917
0.1180000000 -15.188455 -0.647104
0.1190000000 -15.234250 -0.640869
0.1200000000 -15.278829 -0.634206
0.1210000000 -15.322196 -0.627110
0.1220000000 -15.364356 -0.619577
0.1230000000 -15.405312 -0.611602
0.1240000000 -15.445070 -0.603179
0.1250000000 -15.483633 -0.594304
0.1260000000 -15.521005 -0.584972
0.1270000000 -15.557189 -0.575179
0.1280000000 -15.592191 -0.564918
0.1290000000 -15.626014 -0.554186
0.1300000000 -15.658661 -0.542977
0.1310000000 -15.690137 -0.531288
0.1320000000 -15.720445 -0.519112
0.1330000000 -15.749588 -0.506445
0.1340000000 -15.777572 -0.493283
0.1350000000 -15.804399 -0.479621
0.1360000000 -15.830072 -0.465454
0.1370000000 -15.854596 -0.450777
0.1380000000 -15.877974 -0.435585
0.1390000000 -15.900209 -0.419875
0.1400000000 -15.921305 -0.403640
0.1410000000 -15.941265 -0.386877
0.1420000000 -15.960093 -0.369581
0.1430000000 -15.977792 -0.351747
0.1440000000 -15.994365 -0.333371
0.1450000000 -16.009815 -0.314447
0.1460000000 -16.024147 -0.294972
0.1470000000 -16.037362 -0.274941
0.1480000000 -16.049464 -0.254348
0.1490000000 -16.060456 -0.233191
0.1500000000 -16.070342 -0.211463
0.1510000000 -16.079125 -0.189160
0.1520000000 -16.086806 -0.166279
0.1530000000 -16.093390 -0.142814
0.1540000000 -16.098880 -0.118760
0.1550000000 -16.103278 -0.094114
0.1560000000 -16.106587 -0.068871
0.1570000000 -16.108811 -0.043026
0.1580000000 -16.109952 -0.016575
0.1590000000 -16.110013 0.010487
0.1600000000 -16.108996 0.038164
0.1610000000 -16.106905 0.066461
0.1620000000 -16.103742 0.095381
0.1630000000 -16.099511 0.124930
0.1640000000 -16.094213 0.155112
0.1650000000 -16.087852 0.185931
0.1660000000 -16.080429 0.217392
0.1670000000 -16.071949 0.249500
0.1680000000 -16.062413 0.282257
0.1690000000 -16.051824 0.315670
0.1700000000 -16.040184 0.349741
0.1710000000 -16.027497 0.384477
0.1720000000 -16.013764 0.419880
0.1730000000 -15.998988 0.455956
0.1740000000 -15.983172 0.492708
0.1750000000 -15.966318 0.530142
0.1760000000 -15.948428 0.568260
0.1770000000 -15.929505 0.607069
0.1780000000 -15.909552 0.646571
0.1790000000 -15.888570 0.686771
0.1800000000 -15.866562 0.727674
0.1810000000 -15.843530 0.769284
0.1820000000 -15.819478 0.811605
0.1830000000 -15.794406 0.854641
0.1840000000 -15.768317 0.898396
0.1850000000 -15.741214 0.942876
0.1860000000 -15.713098 0.988083
0.1870000000 -15.683972 1.034023
0.1880000000 -15.653839 1.080700
0.1890000000 -15.622700 1.128117
0.1900000000 -15.590557 1.176279
0.1910000000 -15.557413 1.225190
0.1920000000 -15.523269 1.274855
0.1930000000 -15.488129 1.325277
0.1940000000 -15.451993 1.376461
0.1950000000 -15.414864 1.428411
0.1960000000 -15.376745 1.481131
0.1970000000 -15.337636 1.534625
0.1980000000 -15.297541 1.588897
0.1990000000 -15.256461 1.643953
0.2000000000 -15.214398 1.699794
0.2010000000 -15.171354 1.756427
0.2020000000 -15.127331 1.813854
0.2030000000 -15.082332 1.872081
0.2040000000 -15.036357 1.931111
0.2050000000 -14.989409 1.990948
0.2060000000 -14.941490 2.051596
0.2070000000 -14.892602 2.113060
0.2080000000 -14.842746 2.175344
0.2090000000 -14.791925 2.238451
0.2100000000 -14.740140 2.302386
0.2110000000 -14.687393 2.367152
0.2120000000 -14.633686 2.432755
0.2130000000 -14.579021 2.499198
0.2140000000 -14.523399 2.566484
0.2150000000 -14.466823 2.634619
0.2160000000 -14.409294 2.703605
0.2170000000 -14.350813 2.773448
0.2180000000 -14.291384 2.844151
0.2190000000 -14.231006 2.915718
0.2200000000 -14.169683 2.988153
0.2210000000 -14.107415 3.061461
0.2220000000 -14.044205 3.135644
0.2230000000 -13.980054 3.210708
0.2240000000 -13.914964 3.286656
0.2250000000 -13.848936 3.363492
0.2260000000 -13.781973 3.441221
0.2270000000 -13.714075 3.519845
0.2280000000 -13.645244 3.599370
0.2290000000 -13.575482 3.679799
0.2300000000 -13.504791 3.761136
0.2310000000 -13.433173 3.843385
0.2320000000 -13.360628 3.926550
0.2330000000 -13.287158 4.010635
0.2340000000 -13.212765 4.095643
0.2350000000 -13.137450 4.181580
0.2360000000 -13.061216 4.268448
0.2370000000 -12.984063 4.356252
0.2380000000 -12.905993 4.444995
0.2390000000 -12.827007 4.534682
0.2400000000 -12.747108 4.625317
0.2410000000 -12.666295 4.716903
0.2420000000 -12.584572 4.809444
0.2430000000 -12.501940 4.902944
0.2440000000 -12.418399 4.997407
0.2450000000 -12.333951 5.092837
0.2460000000 -12.248599 5.189238
0.2470000000 -12.162342 5.286614
0.2480000000 -12.075183 5.384968
0.2490000000 -11.987124 5.484305
0.2500000000 -11.898164 5.584628
0.2510000000 -11.808307 5.685941
0.2520000000 -11.717552 5.788248
0.2530000000 -11.625902 5.891553
0.2540000000 -11.533359 5.995859
0.2550000000 -11.439922 6.101172
0.2560000000 -11.345594 6.207493
0.2570000000 -11.250376 6.314828
0.2580000000 -11.154270 6.423180
0.2590000000 -11.057276 6.532553
0.2600000000 -10.959396 6.642951
0.2610000000 -10.860632 6.754377
0.2620000000 -10.760984 6.866835
0.2630000000 -10.660453 6.980330
0.2640000000 -10.559042 7.094865
0.2650000000 -10.456752 7.210443
0.2660000000 -10.353583 7.327069
0.2670000000 -10.249537 7.444746
0.2680000000 -10.144615 7.563479
0.2690000000 -10.038819 7.683270
0.2700000000 -9.932150 7.804125
0.2710000000 -9.824608 7.926045
0.2720000000 -9.716196 8.049036
0.2730000000 -9.606914 8.173101
0.2740000000 -9.496763 8.298244
0.2750000000 -9.385745 8.424468
0.2760000000 -9.273862 8.551778
0.2770000000 -9.161113 8.680177
0.2780000000 -9.047501 8.809668
0.2790000000 -8.933026 8.940256
0.2800000000 -8.817690 9.071945
0.2810000000 -8.701494 9.204737
0.2820000000 -8.584439 9.338638
0.2830000000 -8.466526 9.473650
0.2840000000 -8.347757 9.609777
0.2850000000 -8.228131 9.747023
0.2860000000 -8.107652 9.885392
0.2870000000 -7.986319 10.024887
0.2880000000 -7.864134 10.165512
0.2890000000 -7.741097 10.307272
0.2900000000 -7.617211 10.450168
0.2910000000 -7.492476 10.594207
0.2920000000 -7.366893 10.739390
0.2930000000 -7.240463 10.885721
0.2940000000 -7.113188 11.033205
0.2950000000 -6.985068 11.181845
0.2960000000 -6.856105 11.331645
0.2970000000 -6.726299 11.482608
0.2980000000 -6.595652 11.634738
0.2990000000 -6.464164 11.788039
0.3000000000 -6.331838 11.942515
0.3010000000 -6.198673 12.098168
0.3020000000 -6.064670 12.255004
0.3030000000 -5.929832 12.413024
0.3040000000 -5.794159 12.572234
0.3050000000 -5.657651 12.732637
0.3060000000 -5.520310 12.894236
0.3070000000 -5.382137 13.057035
0.3080000000 -5.243133 13.221038
0.3090000000 -5.103299 13.386248
0.3100000000 -4.962635 13.552669
0.3110000000 -4.821144 13.720305
0.3120000000 -4.678825 13.889159
0.3130000000 -4.535680 14.059234
0.3140000000 -4.391710 14.230536
0.3150000000 -4.246916 14.403066
0.3160000000 -4.101298 14.576830
0.3170000000 -3.954858 14.751829
0.3180000000 -3.807596 14.928069
0.3190000000 -3.659514 15.105552
0.3200000000 -3.510613 15.284283
0.3210000000 -3.360893 15.464264
0.3220000000 -3.210355 15.645500
0.3230000000 -3.059001 15.827994
0.3240000000 -2.906830 16.011749
0.3250000000 -2.753845 16.196770
0.3260000000 -2.600046 16.383059
0.3270000000 -2.445434 16.570621
0.3280000000 -2.290009 16.759459
0.3290000000 -2.133774 16.949576
0.3300000000 -1.976728 17.140977
0.3310000000 -1.818872 17.333664
0.3320000000 -1.660208 17.527642
0.3330000000 -1.500736 17.722914
0.3340000000 -1.340458 17.919483
0.3350000000 -1.179373 18.117353
0.3360000000 -1.017483 18.316528
0.3370000000 -0.854789 18.517011
0.3380000000 -0.691292 18.718805
0.3390000000 -0.526992 18.921915
0.3400000000 -0.361890 19.126344
0.3410000000 -0.195988 19.332095
0.3420000000 -0.029285 19.539172
0.3430000000 0.138216 19.747578
0.3440000000 0.306516 19.957318
0.3450000000 0.475613 20.168394
0.3460000000 0.645507 20.380810
0.3470000000 0.816197 20.594570
0.3480000000 0.987682 20.809677
0.3490000000 1.159961 21.026134
0.3500000000 1.333033 21.243946
0.3510000000 1.506898 21.463116
0.3520000000 1.681555 21.683647
0.3530000000 1.857003 21.905543
0.3540000000 2.033241 22.128807
0.3550000000 2.210268 22.353443
0.3560000000 2.388084 22.579454
0.3570000000 2.566688 22.806844
0.3580000000 2.746078 23.035616
0.3590000000 2.926255 23.265775
0.3600000000 3.107218 23.497322
0.3610000000 3.288965 23.730263
0.3620000000 3.471496 23.964600
0.3630000000 3.654810 24.200337
0.3640000000 3.838907 24.437477
0.3650000000 4.023785 24.676024
0.3660000000 4.209444 24.915981
0.3670000000 4.395884 25.157352
0.3680000000 4.583102 25.400141
0.3690000000 4.771100 25.644350
0.3700000000 4.959875 25.889984
0.3710000000 5.149428 26.137045
0.3720000000 5.339757 26.385538
0.3730000000 5.530861 26.635465
0.3740000000 5.722741 26.886830
0.3750000000 5.915395 27.139637
0.3760000000 6.108822 27.393890
0.3770000000 6.303022 27.649590
0.3780000000 6.497994 27.906743
0.3790000000 6.693738 28.165351
0.3800000000 6.890253 28.425419
0.3810000000 7.087537 28.686948
0.3820000000 7.285591 28.949944
0.3830000000 7.484413 29.214409
0.3840000000 7.684003 29.480346
0.3850000000 7.884360 29.747760
0.3860000000 8.085484 30.016653
0.3870000000 8.287373 30.287030
0.3880000000 8.490028 30.558893
0.3890000000 8.693447 30.832246
0.3900000000 8.897630 31.107092
0.3910000000 9.102576 31.383436
0.3920000000 9.308284 31.661279
0.3930000000 9.514754 31.940627
0.3940000000 9.721985 32.221481
0.3950000000 9.929977 32.503846
0.3960000000 10.138728 32.787725
0.3970000000 10.348239 33.073121
0.3980000000 10.558508 33.360038
0.3990000000 10.769534 33.648480
0.4000000000 10.981318 33.938449
0.4010000000 11.193858 34.229949
0.4020000000 11.407154 34.522983
0.4030000000 11.621205 34.817556
0.4040000000 11.836011 35.113670
0.4050000000 12.051571 35.411328
0.4060000000 12.267883 35.710535
0.4070000000 12.484949 36.011293
0.4080000000 12.702767 36.313606
0.4090000000 12.921335 36.617477
0.4100000000 13.140655 36.922910
0.4110000000 13.360725 37.229908
0.4120000000 13.581544 37.538474
0.4130000000 13.803112 37.848613
0.4140000000 14.025429 38.160326
0.4150000000 14.248493 38.473619
0.4160000000 14.472304 38.788493
0.4170000000 14.696862 39.104953
0.4180000000 14.922165 39.423001
0.4190000000 15.148214 39.742642
0.4200000000 15.375008 40.063878
0.4210000000 15.602545 40.386714
0.4220000000 15.830826 40.711151
0.4230000000 16.059849 41.037194
0.4240000000 16.289615 41.364846
0.4250000000 16.520123 41.694111
0.4260000000 16.751372 42.024991
0.4270000000 16.983361 42.357491
0.4280000000 17.216090 42.691613
0.4290000000 17.449559 43.027361
0.4300000000 17.683766 43.364738
0.4310000000 17.918711 43.703748
0.4320000000 18.154394 44.044393
0.4330000000 18.390814 44.386678
0.4340000000 18.627971 44.730606
0.4350000000 18.865863 45.076179
0.4360000000 19.104491 45.423402
0.4370000000 19.343853 45.772277
0.4380000000 19.583950 46.122809
0.4390000000 19.824780 46.475000
0.4400000000 20.066344 46.828854
0.4410000000 20.308640 47.184373
0.4420000000 20.551668 47.541562
0.4430000000 20.795427 47.900424
0.4440000000 21.039918 48.260962
0.4450000000 21.285139 48.623179
0.4460000000 21.531089 48.987079
0.4470000000 21.777769 49.352665
0.4480000000 22.025177 49.719940
0.4490000000 22.273314 50.088908
0.4500000000 22.522179 50.459573
0.4510000000 22.771770 50.831936
0.4520000000 23.022088 51.206002
0.4530000000 23.273132 51.581774
0.4540000000 23.524902 51.959256
0.4550000000 23.777397 52.338450
0.4560000000 24.030616 52.719360
0.4570000000 24.284559 53.101989
0.4580000000 24.539225 53.486341
0.4590000000 24.794615 53.872418
0.4600000000 25.050727 54.260225
0.4610000000 25.307561 54.649765
0.4620000000 25.565116 55.041040
0.4630000000 25.823392 55.434054
0.4640000000 26.082388 55.828811
0.4650000000 26.342104 56.225313
0.4660000000 26.602540 56.623565
0.4670000000 26.863694 57.023568
0.4680000000 27.125567 57.425328
0.4690000000 27.388157 57.828846
0.4700000000 27.651465 58.234126
0.4710000000 27.915490 58.641172
0.4720000000 28.180231 59.049987
0.4730000000 28.445688 59.460573
0.4740000000 28.711861 59.872935
0.4750000000 28.978748 60.287076
0.4760000000 29.246349 60.702998
0.4770000000 29.514665 61.120706
0.4780000000 29.783694 61.540202
0.4790000000 30.053436 61.961490
0.4800000000 30.323890 62.384573
0.4810000000 30.595056 62.809455
0.4820000000 30.866934 63.236137
0.4830000000 31.139523 63.664625
0.4840000000 31.412822 64.094921
0.4850000000 31.686831 64.527028
0.4860000000 31.961550 64.960950
0.4870000000 32.236979 65.396690
0.4880000000 32.513115 65.834251
0.4890000000 32.789960 66.273637
0.4900000000 33.067513 66.714850
0.4910000000 33.345773 67.157894
0.4920000000 33.624740 67.602773
0.4930000000 33.904413 68.049489
0.4940000000 34.184792 68.498046
0.4950000000 34.465877 68.948447
0.4960000000 34.747666 69.400695
0.4970000000 35.030160 69.854793
0.4980000000 35.313358 70.310746
0.4990000000 35.597260 70.768555
0.5000000000 35.881865 71.228225
0.5010000000 36.167172 71.689758
0.5020000000 36.453182 72.153159
0.5030000000 36.739894 72.618429
0.5040000000 37.027307 73.085572
0.5050000000 37.315421 73.554592
0.5060000000 37.604236 74.025492
0.5070000000 37.893750 74.498275
0.5080000000 38.183964 74.972944
0.5090000000 38.474878 75.449502
0.5100000000 38.766490 75.927953
0.5110000000 39.058801 76.408300
0.5120000000 39.351809 76.890547
0.5130000000 39.645515 77.374695
0.5140000000 39.939918 77.860750
0.5150000000 40.235017 78.348713
0.5160000000 40.530813 78.838588
0.5170000000 40.827304 79.330379
0.5180000000 41.124491 79.824088
0.5190000000 41.422373 80.319719
0.5200000000 41.720949 80.817275
0.5210000000 42.020219 81.316759
0.5220000000 42.320183 81.818175
0.5230000000 42.620840 82.321525
0.5240000000 42.922190 82.826813
0.5250000000 43.224233 83.334043
0.5260000000 43.526967 83.843216
0.5270000000 43.830393 84.354338
0.5280000000 44.134510 84.867410
0.5290000000 44.439318 85.382435
0.5300000000 44.744816 85.899418
0.5310000000 45.051004 86.418362
0.5320000000 45.357882 86.939269
0.5330000000 45.665449 87.462143
0.5340000000 45.973704 87.986987
0.5350000000 46.282648 88.513804
0.5360000000 46.592280 89.042597
0.5370000000 46.902600 89.573370
0.5380000000 47.213606 90.106126
0.5390000000 47.525299 90.640868
0.5400000000 47.837679 91.177599
0.5410000000 48.150745 91.716322
0.5420000000 48.464496 92.257041
0.5430000000 48.778932 92.799759
0.5440000000 49.094053 93.344479
0.5450000000 49.409859 93.891204
0.5460000000 49.726348 94.439937
0.5470000000 50.043521 94.990682
0.5480000000 50.361378 95.543442
0.5490000000 50.679917 96.098220
0.5500000000 50.999139 96.655018
0.5510000000 51.319042 97.213841
0.5520000000 51.639628 97.774692
0.5530000000 51.960894 98.337573
0.5540000000 52.282842 98.902488
0.5550000000 52.605470 99.469441
0.5560000000 52.928779 100.038433
0.5570000000 53.252767 100.609469
0.5580000000 53.577435 101.182551
0.5590000000 53.902782 101.757683
0.5600000000 54.228807 102.334868
0.5610000000 54.555511 102.914110
0.5620000000 54.882893 103.495410
0.5630000000 55.210952 104.078773
0.5640000000 55.539689 104.664201
0.5650000000 55.869102 105.251699
0.5660000000 56.199192 105.841268
0.5670000000 56.529958 106.432912
0.5680000000 56.861400 107.026635
0.5690000000 57.193517 107.622439
0.5700000000 57.526309 108.220328
0.5710000000 57.859776 108.820304
0.5720000000 58.193918 109.422372
0.5730000000 58.528733 110.026534
0.5740000000 58.864222 110.632792
0.5750000000 59.200384 111.241152
0.5760000000 59.537219 111.851615
0.5770000000 59.874726 112.464184
0.5780000000 60.212906 113.078864
0.5790000000 60.551757 113.695656
0.5800000000 60.891280 114.314565
0.5810000000 61.231475 114.935593
0.5820000000 61.572340 115.558744
0.5830000000 61.913875 116.184020
0.5840000000 62.256081 116.811425
0.5850000000 62.598956 117.440962
0.5860000000 62.942501 118.072634
0.5870000000 63.286714 118.706445
0.5880000000 63.631597 119.342397
0.5890000000 63.977148 119.980493
0.5900000000 64.323367 120.620737
0.5910000000 64.670253 121.263132
0.5920000000 65.017807 121.907681
0.5930000000 65.366028 122.554387
0.5940000000 65.714916 123.203253
0.5950000000 66.064470 123.854282
0.5960000000 66.414690 124.507478
0.5970000000 66.765576 125.162844
0.5980000000 67.117127 125.820383
0.5990000000 67.469343 126.480097
0.6000000000 67.822224 127.141991
0.6010000000 68.175769 127.806066
0.6020000000 68.529978 128.472327
0.6030000000 68.884851 129.140777
0.6040000000 69.240387 129.811418
0.6050000000 69.596586 130.484253
0.6060000000 69.953448 131.159287
0.6070000000 70.310973 131.836521
0.6080000000 70.669159 132.515960
0.6090000000 71.028008 133.197606
0.6100000000 71.387517 133.881462
0.6110000000 71.747688 134.567531
0.6120000000 72.108520 135.255818
0.6130000000 72.470012 135.946323
0.6140000000 72.832164 136.639052
0.6150000000 73.194976 137.334007
0.6160000000 73.558448 138.031190
0.6170000000 73.922578 138.730606
0.6180000000 74.287368 139.432257
0.6190000000 74.652816 140.136147
0.6200000000 75.018923 140.842277
0.6210000000 75.385687 141.550653
0.6220000000 75.753109 142.261276
0.6230000000 76.121188 142.974150
0.6240000000 76.489925 143.689279
0.6250000000 76.859318 144.406664
0.6260000000 77.229367 145.126309
0.6270000000 77.600073 145.848218
0.6280000000 77.971434 146.572393
0.6290000000 78.343451 147.298837
0.6300000000 78.716123 148.027554
0.6310000000 79.089450 148.758547
0.6320000000 79.463432 149.491818
0.6330000000 79.838067 150.227372
0.6340000000 80.213357 150.965210
0.6350000000 80.589300 151.705337
0.6360000000 80.965897 152.447754
0.6370000000 81.343147 153.192466
0.6380000000 81.721049 153.939476
0.6390000000 82.099604 154.688786
0.6400000000 82.478811 155.440399
0.6410000000 82.858670 156.194319
0.6420000000 83.239181 156.950549
0.6430000000 83.620343 157.709092
0.6440000000 84.002156 158.469951
0.6450000000 84.384619 159.233128
0.6460000000 84.767733 159.998628
0.6470000000 85.151497 160.766453
0.6480000000 85.535911 161.536607
0.6490000000 85.920975 162.309091
0.6500000000 86.306687 163.083911
0.6510000000 86.693049 163.861067
0.6520000000 87.080059 164.640565
0.6530000000 87.467718 165.422406
0.6540000000 87.856024 166.206594
0.6550000000 88.244979 166.993132
0.6560000000 88.634581 167.782023
0.6570000000 89.024830 168.573270
0.6580000000 89.415727 169.366876
0.6590000000 89.807270 170.162844
0.6600000000 90.199459 170.961178
0.6610000000 90.592294 171.761880
0.6620000000 90.985776 172.564953
0.6630000000 91.379902 173.370401
0.6640000000 91.774674 174.178227
0.6650000000 92.170091 174.988433
0.6660000000 92.566153 175.801023
0.6670000000 92.962859 176.616000
0.6680000000 93.360210 177.433366
0.6690000000 93.758204 178.253126
0.6700000000 94.156842 179.075282
0.6710000000 94.556123 179.899836
0.6720000000 94.956047 180.726793
0.6730000000 95.356614 181.556155
0.6740000000 95.757824 182.387926
0.6750000000 96.159676 183.222108
0.6760000000 96.562170 184.058704
0.6770000000 96.965305 184.897717
0.6780000000 97.369082 185.739152
0.6790000000 97.773500 186.583009
0.6800000000 98.178559 187.429294
0.6810000000 98.584259 188.278008
0.6820000000 98.990599 189.129155
0.6830000000 99.397579 189.982738
0.6840000000 99.805199 190.838760
0.6850000000 100.213458 191.697224
0.6860000000 100.622357 192.558132
0.6870000000 101.031895 193.421489
0.6880000000 101.442071 194.287297
0.6890000000 101.852886 195.155559
0.6900000000 102.264340 196.026279
0.6910000000 102.676431 196.899458
0.6920000000 103.089160 197.775101
0.6930000000 103.502527 198.653211
0.6940000000 103.916530 199.533789
0.6950000000 104.331171 200.416841
0.6960000000 104.746448 201.302368
0.6970000000 105.162362 202.190373
0.6980000000 105.578912 203.080860
0.6990000000 105.996098 203.973832
0.7000000000 106.413920 204.869291
0.7010000000 106.832377 205.767242
0.7020000000 107.251469 206.667686
0.7030000000 107.671196 207.570627
0.7040000000 108.091558 208.476067
0.7050000000 108.512554 209.384011
0.7060000000 108.934185 210.294461
0.7070000000 109.356449 211.207420
0.7080000000 109.779347 212.122891
0.7090000000 110.202878 213.040876
0.7100000000 110.627043 213.961380
0.7110000000 111.051840 214.884406
0.7120000000 111.477270 215.809955
0.7130000000 111.903332 216.738032
0.7140000000 112.330027 217.668639
0.7150000000 112.757353 218.601779
0.7160000000 113.185312 219.537456
0.7170000000 113.613901 220.475672
0.7180000000 114.043122 221.416430
0.7190000000 114.472974 222.359734
0.7200000000 114.903456 223.305586
0.7210000000 115.334569 224.253990
0.7220000000 115.766312 225.204948
0.7230000000 116.198685 226.158464
0.7240000000 116.631688 227.114541
0.7250000000 117.065320 228.073181
0.7260000000 117.499581 229.034387
0.7270000000 117.934472 229.998164
0.7280000000 118.369991 230.964513
0.7290000000 118.806139 231.933438
0.7300000000 119.242915 232.904941
0.7310000000 119.680319 233.879026
0.7320000000 120.118351 234.855696
0.7330000000 120.557010 235.834954
0.7340000000 120.996297 236.816803
0.7350000000 121.436211 237.801245
0.7360000000 121.876752 238.788285
0.7370000000 122.317919 239.777924
0.7380000000 122.759713 240.770166
0.7390000000 123.202133 241.765014
0.7400000000 123.645179 242.762471
0.7410000000 124.088851 243.762540
0.7420000000 124.533148 244.765224
0.7430000000 124.978071 245.770526
0.7440000000 125.423618 246.778448
0.7450000000 125.869790 247.788995
0.7460000000 126.316587 248.802169
0.7470000000 126.764008 249.817973
0.7480000000 127.212053 250.836410
0.7490000000 127.660723 251.857482
0.7500000000 128.110015 252.881194
0.7510000000 128.559931 253.907548
0.7520000000 129.010471 254.936547
0.7530000000 129.461633 255.968194
0.7540000000 129.913418 257.002493
0.7550000000 130.365826 258.039445
0.7560000000 130.818856 259.079054
0.7570000000 131.272507 260.121324
0.7580000000 131.726781 261.166256
0.7590000000 132.181677 262.213855
0.7600000000 132.637193 263.264123
0.7610000000 133.093331 264.317062
0.7620000000 133.550090 265.372677
0.7630000000 134.007470 266.430970
0.7640000000 134.465470 267.491945
0.7650000000 134.924091 268.555603
0.7660000000 135.383331 269.621948
0.7670000000 135.843192 270.690984
0.7680000000 136.303672 271.762712
0.7690000000 136.764771 272.837137
0.7700000000 137.226490 273.914261
0.7710000000 137.688828 274.994086
0.7720000000 138.151784 276.076617
0.7730000000 138.615359 277.161856
0.7740000000 139.079553 278.249806
0.7750000000 139.544364 279.340470
0.7760000000 140.009793 280.433851
0.7770000000 140.475841 281.529953
0.7780000000 140.942505 282.628777
0.7790000000 141.409787 283.730327
0.7800000000 141.877686 284.834606
0.7810000000 142.346202 285.941617
0.7820000000 142.815334 287.051363
0.7830000000 143.285083 288.163848
0.7840000000 143.755448 289.279073
0.7850000000 144.226429 290.397042
0.7860000000 144.698026 291.517758
0.7870000000 145.170238 292.641224
0.7880000000 145.643066 293.767443
0.7890000000 146.116509 294.896417
0.7900000000 146.590567 296.028151
0.7910000000 147.065240 297.162646
0.7920000000 147.540527 298.299906
0.7930000000 148.016428 299.439934
0.7940000000 148.492944 300.582733
0.7950000000 148.970074 301.728306
0.7960000000 149.447817 302.876655
0.7970000000 149.926174 304.027784
0.7980000000 150.405144 305.181696
0.7990000000 150.884727 306.338394
0.8000000000 151.364923 307.497880
0.8010000000 151.845732 308.660158
0.8020000000 152.327154 309.825230
0.8030000000 152.809187 310.993100
0.8040000000 153.291833 312.163771
0.8050000000 153.775091 313.337245
0.8060000000 154.258960 314.513525
0.8070000000 154.743441 315.692615
0.8080000000 155.228533 316.874518
0.8090000000 155.714236 318.059236
0.8100000000 156.200550 319.246772
0.8110000000 156.687475 320.437130
0.8120000000 157.175010 321.630312
0.8130000000 157.663156 322.826321
0.8140000000 158.151911 324.025161
0.8150000000 158.641277 325.226834
0.8160000000 159.131252 326.431343
0.8170000000 159.621837 327.638691
0.8180000000 160.113031 328.848881
0.8190000000 160.604834 330.061917
0.8200000000 161.097246 331.277800
0.8210000000 161.590267 332.496535
0.8220000000 162.083896 333.718124
0.8230000000 162.578134 334.942569
0.8240000000 163.072979 336.169875
0.8250000000 163.568433 337.400043
0.8260000000 164.064495 338.633077
0.8270000000 164.561164 339.868980
0.8280000000 165.058440 341.107755
0.8290000000 165.556324 342.349405
0.8300000000 166.054814 343.593932
0.8310000000 166.553912 344.841340
0.8320000000 167.053615 346.091631
0.8330000000 167.553926 347.344809
0.8340000000 168.054842 348.600877
0.8350000000 168.556365 349.859837
0.8360000000 169.058494 351.121692
0.8370000000 169.561228 352.386446
0.8380000000 170.064567 353.654101
0.8390000000 170.568512 354.924660
0.8400000000 171.073062 356.198127
0.8410000000 171.578217 357.474504
0.8420000000 172.083977 358.753794
0.8430000000 172.590341 360.036000
0.8440000000 173.097309 361.321125
0.8450000000 173.604882 362.609172
0.8460000000 174.113058 363.900144
0.8470000000 174.621839 365.194044
0.8480000000 175.131223 366.490875
0.8490000000 175.641210 367.790640
0.8500000000 176.151801 369.093341
0.8510000000 176.662994 370.398983
0.8520000000 177.174791 371.707566
0.8530000000 177.687190 373.019096
0.8540000000 178.200192 374.333574
0.8550000000 178.713796 375.651003
0.8560000000 179.228002 376.971387
0.8570000000 179.742810 378.294728
0.8580000000 180.258220 379.621029
0.8590000000 180.774232 380.950294
0.8600000000 181.290845 382.282525
0.8610000000 181.808059 383.617725
0.8620000000 182.325874 384.955897
0.8630000000 182.844290 386.297044
0.8640000000 183.363307 387.641169
0.8650000000 183.882925 388.988275
0.8660000000 184.403142 390.338365
0.8670000000 184.923960 391.691442
0.8680000000 185.445378 393.047508
0.8690000000 185.967396 394.406567
0.8700000000 186.490013 395.768621
0.8710000000 187.013230 397.133674
0.8720000000 187.537046 398.501729
0.8730000000 188.061461 399.872788
0.8740000000 188.586475 401.246854
0.8750000000 189.112088 402.623930
0.8760000000 189.638299 404.004020
0.8770000000 190.165109 405.387126
0.8780000000 190.692517 406.773251
0.8790000000 191.220523 408.162398
0.8800000000 191.749127 409.554570
0.8810000000 192.278329 410.949769
0.8820000000 192.808128 412.348000
0.8830000000 193.338525 413.749264
0.8840000000 193.869519 415.153565
0.8850000000 194.401110 416.560905
0.8860000000 194.933297 417.971288
0.8870000000 195.466082 419.384716
0.8880000000 195.999463 420.801193
0.8890000000 196.533440 422.220721
0.8900000000 197.068013 423.643303
0.8910000000 197.603183 425.068943
0.8920000000 198.138948 426.497642
0.8930000000 198.675309 427.929404
0.8940000000 199.212265 429.364233
0.8950000000 199.749817 430.802130
0.8960000000 200.287964 432.243099
0.8970000000 200.826706 433.687142
0.8980000000 201.366043 435.134264
0.8990000000 201.905974 436.584465
0.9000000000 202.446500 438.037750
0.9010000000 202.987620 439.494122
0.9020000000 203.529334 440.953583
0.9030000000 204.071642 442.416136
0.9040000000 204.614545 443.881784
0.9050000000 205.158040 445.350530
0.9060000000 205.702130 446.822378
0.9070000000 206.246812 448.297329
0.9080000000 206.792088 449.775387
0.9090000000 207.337957 451.256554
0.9100000000 207.884418 452.740834
0.9110000000 208.431473 454.228230
0.9120000000 208.979119 455.718745
0.9130000000 209.527359 457.212380
0.9140000000 210.076190 458.709140
0.9150000000 210.625613 460.209027
0.9160000000 211.175628 461.712045
0.9170000000 211.726235 463.218195
0.9180000000 212.277434 464.727481
0.9190000000 212.829223 466.239907
0.9200000000 213.381604 467.755474
0.9210000000 213.934577 469.274185
0.9220000000 214.488139 470.796044
0.9230000000 215.042293 472.321054
0.9240000000 215.597037 473.849217
0.9250000000 216.152372 475.380537
0.9260000000 216.708297 476.915016
0.9270000000 217.264812 478.452656
0.9280000000 217.821917 479.993462
0.9290000000 218.379612 481.537436
0.9300000000 218.937896 483.084581
0.9310000000 219.496770 484.634899
0.9320000000 220.056233 486.188395
0.9330000000 220.616286 487.745069
0.9340000000 221.176927 489.304927
0.9350000000 221.738157 490.867969
0.9360000000 222.299976 492.434200
0.9370000000 222.862383 494.003622
0.9380000000 223.425379 495.576239
0.9390000000 223.988963 497.152052
0.9400000000 224.553135 498.731065
0.9410000000 225.117895 500.313281
0.9420000000 225.683242 501.898703
0.9430000000 226.249178 503.487333
0.9440000000 226.815700 505.079175
0.9450000000 227.382810 506.674231
0.9460000000 227.950507 508.272505
0.9470000000 228.518791 509.873998
0.9480000000 229.087662 511.478715
0.9490000000 229.657120 513.086658
0.9500000000 230.227164 514.697830
0.9510000000 230.797795 516.312233
0.9520000000 231.369011 517.929872
0.9530000000 231.940814 519.550748
0.9540000000 232.513203 521.174864
0.9550000000 233.086177 522.802224
0.9560000000 233.659737 524.432830
0.9570000000 234.233883 526.066685
0.9580000000 234.808614 527.703792
0.9590000000 235.383930 529.344154
0.9600000000 235.959831 530.987774
0.9610000000 236.536317 532.634655
0.9620000000 237.113388 534.284800
0.9630000000 237.691043 535.938210
0.9640000000 238.269282 537.594891
0.9650000000 238.848106 539.254844
0.9660000000 239.427514 540.918071
0.9670000000 240.007506 542.584577
0.9680000000 240.588082 544.254364
0.9690000000 241.169242 545.927435
0.9700000000 241.750985 547.603793
0.9710000000 242.333311 549.283440
0.9720000000 242.916221 550.966380
0.9730000000 243.499714 552.652615
0.9740000000 244.083790 554.342149
0.9750000000 244.668448 556.034983
0.9760000000 245.253689 557.731122
0.9770000000 245.839513 559.430568
0.9780000000 246.425919 561.133324
0.9790000000 247.012907 562.839392
0.9800000000 247.600478 564.548776
0.9810000000 248.188630 566.261478
0.9820000000 248.777364 567.977502
0.9830000000 249.366680 569.696850
0.9840000000 249.956577 571.419526
0.9850000000 250.547056 573.145531
0.9860000000 251.138116 574.874869
0.9870000000 251.729757 576.607543
0.9880000000 252.321979 578.343556
0.9890000000 252.914781 580.082910
0.9900000000 253.508165 581.825609
0.9910000000 254.102128 583.571655
0.9920000000 254.696673 585.321051
0.9930000000 255.291797 587.073800
0.9940000000 255.887501 588.829905
0.9950000000 256.483786 590.589369
0.9960000000 257.080650 592.352195
0.9970000000 257.678094 594.118386
0.9980000000 258.276117 595.887943
0.9990000000 258.874720 597.660872
1.0000000000 259.473902 599.437173
